Model,MDO4104C
Firmware Version,1.06

Waveform Type,RF_FD
Point Format,Y
Horizontal Units,Hz
Horizontal Scale,2e+07
,
Sample Interval,200000
Record Length,1001
Gating,0.099900099900% to 100.0%
Probe Attenuation,1
Vertical Units,dBm
Vertical Offset,0
Vertical Scale,10
Vertical Position,0
Center Frequency,5.7e+09
Span,2e+08
Reference Level,20
Label,
FREQUENCY,FD NORM
5.6000000000e+09,-45.611
5.6002000000e+09,-45.9254
5.6004000000e+09,-45.9914
5.6006000000e+09,-45.751
5.6008000000e+09,-45.3121
5.6010000000e+09,-44.9281
5.6012000000e+09,-44.907
5.6014000000e+09,-45.5427
5.6016000000e+09,-47.1292
5.6018000000e+09,-50.0363
5.6020000000e+09,-54.586
5.6022000000e+09,-57.7789
5.6024000000e+09,-55.5052
5.6026000000e+09,-54.0867
5.6028000000e+09,-54.8188
5.6030000000e+09,-57.8408
5.6032000000e+09,-63.008
5.6034000000e+09,-62.3771
5.6036000000e+09,-58.5776
5.6038000000e+09,-56.5913
5.6040000000e+09,-55.3769
5.6042000000e+09,-54.0945
5.6044000000e+09,-52.8397
5.6046000000e+09,-52.1839
5.6048000000e+09,-52.599
5.6050000000e+09,-54.5112
5.6052000000e+09,-58.0869
5.6054000000e+09,-58.4334
5.6056000000e+09,-53.9356
5.6058000000e+09,-50.7393
5.6060000000e+09,-48.9573
5.6062000000e+09,-48.0729
5.6064000000e+09,-47.6965
5.6066000000e+09,-47.6028
5.6068000000e+09,-47.7636
5.6070000000e+09,-48.2401
5.6072000000e+09,-48.9865
5.6074000000e+09,-49.7206
5.6076000000e+09,-50.0497
5.6078000000e+09,-49.8998
5.6080000000e+09,-49.6205
5.6082000000e+09,-49.6135
5.6084000000e+09,-50.1419
5.6086000000e+09,-51.3764
5.6088000000e+09,-53.4897
5.6090000000e+09,-56.8419
5.6092000000e+09,-62.1309
5.6094000000e+09,-62.2798
5.6096000000e+09,-55.7609
5.6098000000e+09,-51.4492
5.6100000000e+09,-48.7523
5.6102000000e+09,-47.2063
5.6104000000e+09,-46.6031
5.6106000000e+09,-46.8419
5.6108000000e+09,-47.868
5.6110000000e+09,-49.6142
5.6112000000e+09,-51.8477
5.6114000000e+09,-53.8707
5.6116000000e+09,-54.8078
5.6118000000e+09,-55.0258
5.6120000000e+09,-55.6429
5.6122000000e+09,-57.3346
5.6124000000e+09,-60.1568
5.6126000000e+09,-62.1906
5.6128000000e+09,-61.2382
5.6130000000e+09,-60.2702
5.6132000000e+09,-60.8134
5.6134000000e+09,-62.9007
5.6136000000e+09,-65.9463
5.6138000000e+09,-66.6896
5.6140000000e+09,-62.542
5.6142000000e+09,-57.9615
5.6144000000e+09,-54.5367
5.6146000000e+09,-52.3258
5.6148000000e+09,-51.2282
5.6150000000e+09,-51.1701
5.6152000000e+09,-52.1389
5.6154000000e+09,-54.1738
5.6156000000e+09,-56.9694
5.6158000000e+09,-57.7074
5.6160000000e+09,-54.6397
5.6162000000e+09,-51.4983
5.6164000000e+09,-49.4214
5.6166000000e+09,-48.4651
5.6168000000e+09,-48.6763
5.6170000000e+09,-50.2053
5.6172000000e+09,-53.2219
5.6174000000e+09,-56.5813
5.6176000000e+09,-55.6655
5.6178000000e+09,-53.228
5.6180000000e+09,-52.1159
5.6182000000e+09,-52.2921
5.6184000000e+09,-53.3589
5.6186000000e+09,-54.5211
5.6188000000e+09,-54.6829
5.6190000000e+09,-53.947
5.6192000000e+09,-53.3233
5.6194000000e+09,-53.3026
5.6196000000e+09,-53.8552
5.6198000000e+09,-54.5896
5.6200000000e+09,-54.8791
5.6202000000e+09,-54.5218
5.6204000000e+09,-54.0481
5.6206000000e+09,-54.0341
5.6208000000e+09,-54.7539
5.6210000000e+09,-56.2618
5.6212000000e+09,-58.5058
5.6214000000e+09,-61.2093
5.6216000000e+09,-62.2179
5.6218000000e+09,-59.6391
5.6220000000e+09,-57.0954
5.6222000000e+09,-56.142
5.6224000000e+09,-56.6642
5.6226000000e+09,-56.783
5.6228000000e+09,-54.0644
5.6230000000e+09,-50.9248
5.6232000000e+09,-48.8702
5.6234000000e+09,-47.883
5.6236000000e+09,-47.7052
5.6238000000e+09,-48.0206
5.6240000000e+09,-48.4161
5.6242000000e+09,-48.4333
5.6244000000e+09,-47.873
5.6246000000e+09,-46.9891
5.6248000000e+09,-46.1798
5.6250000000e+09,-45.7023
5.6252000000e+09,-45.6646
5.6254000000e+09,-46.1077
5.6256000000e+09,-47.0803
5.6258000000e+09,-48.7155
5.6260000000e+09,-51.3597
5.6262000000e+09,-55.9652
5.6264000000e+09,-65.5784
5.6266000000e+09,-60.2924
5.6268000000e+09,-54.5876
5.6270000000e+09,-52.4752
5.6272000000e+09,-52.6159
5.6274000000e+09,-55.2093
5.6276000000e+09,-61.9277
5.6278000000e+09,-60.7102
5.6280000000e+09,-54.4193
5.6282000000e+09,-52.0044
5.6284000000e+09,-51.9539
5.6286000000e+09,-54.1296
5.6288000000e+09,-59.9352
5.6290000000e+09,-75.9911
5.6292000000e+09,-58.5139
5.6294000000e+09,-53.8171
5.6296000000e+09,-51.6148
5.6298000000e+09,-50.4597
5.6300000000e+09,-49.6477
5.6302000000e+09,-48.803
5.6304000000e+09,-47.9961
5.6306000000e+09,-47.5771
5.6308000000e+09,-47.8881
5.6310000000e+09,-49.2308
5.6312000000e+09,-52.0596
5.6314000000e+09,-57.5888
5.6316000000e+09,-64.9291
5.6318000000e+09,-56.4929
5.6320000000e+09,-51.7251
5.6322000000e+09,-48.902
5.6324000000e+09,-46.9289
5.6326000000e+09,-45.416
5.6328000000e+09,-44.2665
5.6330000000e+09,-43.5242
5.6332000000e+09,-43.2901
5.6334000000e+09,-43.6807
5.6336000000e+09,-44.8124
5.6338000000e+09,-46.7867
5.6340000000e+09,-49.6058
5.6342000000e+09,-52.7227
5.6344000000e+09,-54.1187
5.6346000000e+09,-52.93
5.6348000000e+09,-51.1675
5.6350000000e+09,-49.9136
5.6352000000e+09,-49.5113
5.6354000000e+09,-50.1813
5.6356000000e+09,-52.175
5.6358000000e+09,-55.9175
5.6360000000e+09,-62.6342
5.6362000000e+09,-86.4886
5.6364000000e+09,-63.0386
5.6366000000e+09,-56.1488
5.6368000000e+09,-51.9437
5.6370000000e+09,-49.3701
5.6372000000e+09,-48.054
5.6374000000e+09,-47.7158
5.6376000000e+09,-48.0016
5.6378000000e+09,-48.3502
5.6380000000e+09,-48.1709
5.6382000000e+09,-47.4254
5.6384000000e+09,-46.5609
5.6386000000e+09,-45.9355
5.6388000000e+09,-45.6742
5.6390000000e+09,-45.7459
5.6392000000e+09,-46.0137
5.6394000000e+09,-46.2896
5.6396000000e+09,-46.4211
5.6398000000e+09,-46.3249
5.6400000000e+09,-45.9441
5.6402000000e+09,-45.2858
5.6404000000e+09,-44.5255
5.6406000000e+09,-43.9445
5.6408000000e+09,-43.7804
5.6410000000e+09,-44.1747
5.6412000000e+09,-45.1936
5.6414000000e+09,-46.8455
5.6416000000e+09,-49.0527
5.6418000000e+09,-51.5533
5.6420000000e+09,-53.8535
5.6422000000e+09,-55.6853
5.6424000000e+09,-57.5713
5.6426000000e+09,-60.1754
5.6428000000e+09,-61.7794
5.6430000000e+09,-58.9507
5.6432000000e+09,-55.6993
5.6434000000e+09,-53.7693
5.6436000000e+09,-53.0922
5.6438000000e+09,-53.5878
5.6440000000e+09,-55.3325
5.6442000000e+09,-58.0774
5.6444000000e+09,-58.1168
5.6446000000e+09,-54.1619
5.6448000000e+09,-50.7463
5.6450000000e+09,-48.5032
5.6452000000e+09,-47.212
5.6454000000e+09,-46.7146
5.6456000000e+09,-46.9462
5.6458000000e+09,-47.9063
5.6460000000e+09,-49.5818
5.6462000000e+09,-51.6579
5.6464000000e+09,-53.0004
5.6466000000e+09,-52.8981
5.6468000000e+09,-52.6388
5.6470000000e+09,-53.1054
5.6472000000e+09,-53.6463
5.6474000000e+09,-52.9399
5.6476000000e+09,-51.8254
5.6478000000e+09,-51.9595
5.6480000000e+09,-54.5372
5.6482000000e+09,-60.7067
5.6484000000e+09,-55.0663
5.6486000000e+09,-49.0402
5.6488000000e+09,-45.8439
5.6490000000e+09,-44.216
5.6492000000e+09,-43.6334
5.6494000000e+09,-43.8261
5.6496000000e+09,-44.648
5.6498000000e+09,-46.0725
5.6500000000e+09,-48.2556
5.6502000000e+09,-51.7328
5.6504000000e+09,-58.3435
5.6506000000e+09,-64.0402
5.6508000000e+09,-54.1954
5.6510000000e+09,-49.81
5.6512000000e+09,-47.5137
5.6514000000e+09,-46.3723
5.6516000000e+09,-45.9926
5.6518000000e+09,-46.1734
5.6520000000e+09,-46.8761
5.6522000000e+09,-48.2364
5.6524000000e+09,-50.4536
5.6526000000e+09,-52.7729
5.6528000000e+09,-51.5523
5.6530000000e+09,-48.108
5.6532000000e+09,-45.5074
5.6534000000e+09,-44.0865
5.6536000000e+09,-43.7525
5.6538000000e+09,-44.4615
5.6540000000e+09,-46.2536
5.6542000000e+09,-49.311
5.6544000000e+09,-54.2715
5.6546000000e+09,-64.1174
5.6548000000e+09,-60.7007
5.6550000000e+09,-53.3072
5.6552000000e+09,-49.3388
5.6554000000e+09,-46.8627
5.6556000000e+09,-45.4093
5.6558000000e+09,-44.811
5.6560000000e+09,-44.9878
5.6562000000e+09,-45.8796
5.6564000000e+09,-47.4063
5.6566000000e+09,-49.3776
5.6568000000e+09,-51.3225
5.6570000000e+09,-52.5613
5.6572000000e+09,-52.997
5.6574000000e+09,-53.2098
5.6576000000e+09,-53.499
5.6578000000e+09,-53.6216
5.6580000000e+09,-53.2929
5.6582000000e+09,-52.6793
5.6584000000e+09,-52.0116
5.6586000000e+09,-51.1626
5.6588000000e+09,-49.9819
5.6590000000e+09,-48.672
5.6592000000e+09,-47.4909
5.6594000000e+09,-46.4709
5.6596000000e+09,-45.5668
5.6598000000e+09,-44.8824
5.6600000000e+09,-44.6401
5.6602000000e+09,-45.0045
5.6604000000e+09,-45.9874
5.6606000000e+09,-47.4891
5.6608000000e+09,-49.5403
5.6610000000e+09,-52.7109
5.6612000000e+09,-58.8977
5.6614000000e+09,-76.7784
5.6616000000e+09,-58.8067
5.6618000000e+09,-53.7839
5.6620000000e+09,-50.2024
5.6622000000e+09,-46.9856
5.6624000000e+09,-44.4703
5.6626000000e+09,-42.8907
5.6628000000e+09,-42.2813
5.6630000000e+09,-42.6329
5.6632000000e+09,-43.9255
5.6634000000e+09,-45.9404
5.6636000000e+09,-47.4679
5.6638000000e+09,-46.6188
5.6640000000e+09,-44.3972
5.6642000000e+09,-42.2213
5.6644000000e+09,-40.2193
5.6646000000e+09,-38.2246
5.6648000000e+09,-36.2138
5.6650000000e+09,-34.3075
5.6652000000e+09,-32.6456
5.6654000000e+09,-31.3493
5.6656000000e+09,-30.5286
5.6658000000e+09,-30.0522
5.6660000000e+09,-28.338
5.6662000000e+09,-22.045
5.6664000000e+09,-13.3413
5.6666000000e+09,-5.36136
5.6668000000e+09,1.28265
5.6670000000e+09,6.62374
5.6672000000e+09,10.7735
5.6674000000e+09,13.8277
5.6676000000e+09,15.8553
5.6678000000e+09,16.9002
5.6680000000e+09,16.985
5.6682000000e+09,16.1131
5.6684000000e+09,14.2685
5.6686000000e+09,11.4142
5.6688000000e+09,7.48636
5.6690000000e+09,2.38186
5.6692000000e+09,-4.07642
5.6694000000e+09,-12.2524
5.6696000000e+09,-23.1592
5.6698000000e+09,-35.7389
5.6700000000e+09,-32.7306
5.6702000000e+09,-32.1975
5.6704000000e+09,-33.0574
5.6706000000e+09,-34.5627
5.6708000000e+09,-36.5846
5.6710000000e+09,-39.1015
5.6712000000e+09,-42.021
5.6714000000e+09,-45.0166
5.6716000000e+09,-47.6721
5.6718000000e+09,-50.1541
5.6720000000e+09,-52.2097
5.6722000000e+09,-50.7234
5.6724000000e+09,-47.3819
5.6726000000e+09,-45.1321
5.6728000000e+09,-44.2725
5.6730000000e+09,-44.6898
5.6732000000e+09,-46.2825
5.6734000000e+09,-48.803
5.6736000000e+09,-51.2142
5.6738000000e+09,-51.8447
5.6740000000e+09,-51.2729
5.6742000000e+09,-50.5876
5.6744000000e+09,-49.4177
5.6746000000e+09,-47.2746
5.6748000000e+09,-44.648
5.6750000000e+09,-42.2112
5.6752000000e+09,-40.2642
5.6754000000e+09,-38.8807
5.6756000000e+09,-38.0536
5.6758000000e+09,-37.7597
5.6760000000e+09,-37.9969
5.6762000000e+09,-38.8116
5.6764000000e+09,-40.3208
5.6766000000e+09,-42.7471
5.6768000000e+09,-46.5257
5.6770000000e+09,-52.5702
5.6772000000e+09,-57.9396
5.6774000000e+09,-53.164
5.6776000000e+09,-50.2286
5.6778000000e+09,-48.9776
5.6780000000e+09,-48.4681
5.6782000000e+09,-48.1411
5.6784000000e+09,-47.7487
5.6786000000e+09,-47.3152
5.6788000000e+09,-46.9525
5.6790000000e+09,-46.7017
5.6792000000e+09,-46.5061
5.6794000000e+09,-46.2809
5.6796000000e+09,-46.0252
5.6798000000e+09,-45.8719
5.6800000000e+09,-46.0315
5.6802000000e+09,-46.7184
5.6804000000e+09,-48.1418
5.6806000000e+09,-50.5398
5.6808000000e+09,-54.2135
5.6810000000e+09,-59.1144
5.6812000000e+09,-61.9691
5.6814000000e+09,-61.4436
5.6816000000e+09,-62.1597
5.6818000000e+09,-62.9817
5.6820000000e+09,-59.3995
5.6822000000e+09,-55.6034
5.6824000000e+09,-53.4902
5.6826000000e+09,-52.9049
5.6828000000e+09,-53.6491
5.6830000000e+09,-55.3881
5.6832000000e+09,-56.6093
5.6834000000e+09,-54.8943
5.6836000000e+09,-51.7158
5.6838000000e+09,-48.9015
5.6840000000e+09,-46.8458
5.6842000000e+09,-45.5993
5.6844000000e+09,-45.1594
5.6846000000e+09,-45.5229
5.6848000000e+09,-46.715
5.6850000000e+09,-48.786
5.6852000000e+09,-51.5649
5.6854000000e+09,-53.3475
5.6856000000e+09,-51.9501
5.6858000000e+09,-49.7556
5.6860000000e+09,-48.3584
5.6862000000e+09,-47.8897
5.6864000000e+09,-48.2978
5.6866000000e+09,-49.6693
5.6868000000e+09,-52.4756
5.6870000000e+09,-58.5795
5.6872000000e+09,-66.6288
5.6874000000e+09,-54.3968
5.6876000000e+09,-49.5094
5.6878000000e+09,-46.916
5.6880000000e+09,-45.5578
5.6882000000e+09,-44.9947
5.6884000000e+09,-44.9409
5.6886000000e+09,-45.1959
5.6888000000e+09,-45.6583
5.6890000000e+09,-46.3043
5.6892000000e+09,-47.1186
5.6894000000e+09,-48.055
5.6896000000e+09,-49.067
5.6898000000e+09,-50.1733
5.6900000000e+09,-51.4888
5.6902000000e+09,-53.1907
5.6904000000e+09,-55.4234
5.6906000000e+09,-58.16
5.6908000000e+09,-60.7874
5.6910000000e+09,-60.7661
5.6912000000e+09,-56.9883
5.6914000000e+09,-52.8271
5.6916000000e+09,-49.5624
5.6918000000e+09,-47.2289
5.6920000000e+09,-45.685
5.6922000000e+09,-44.7901
5.6924000000e+09,-44.4327
5.6926000000e+09,-44.5311
5.6928000000e+09,-45.0319
5.6930000000e+09,-45.9123
5.6932000000e+09,-47.1896
5.6934000000e+09,-48.9271
5.6936000000e+09,-51.2441
5.6938000000e+09,-54.3575
5.6940000000e+09,-58.6814
5.6942000000e+09,-64.0101
5.6944000000e+09,-63.1291
5.6946000000e+09,-59.132
5.6948000000e+09,-56.6281
5.6950000000e+09,-55.1947
5.6952000000e+09,-54.4215
5.6954000000e+09,-54.0275
5.6956000000e+09,-53.6651
5.6958000000e+09,-52.9927
5.6960000000e+09,-52.1074
5.6962000000e+09,-51.5149
5.6964000000e+09,-51.6607
5.6966000000e+09,-52.6883
5.6968000000e+09,-53.8958
5.6970000000e+09,-53.1236
5.6972000000e+09,-50.5867
5.6974000000e+09,-48.357
5.6976000000e+09,-47.0256
5.6978000000e+09,-46.5862
5.6980000000e+09,-46.9647
5.6982000000e+09,-48.0674
5.6984000000e+09,-49.6441
5.6986000000e+09,-50.9272
5.6988000000e+09,-50.7231
5.6990000000e+09,-49.0846
5.6992000000e+09,-47.0523
5.6994000000e+09,-45.1829
5.6996000000e+09,-43.6542
5.6998000000e+09,-42.5465
5.7000000000e+09,-41.9165
5.7002000000e+09,-41.8035
5.7004000000e+09,-42.2288
5.7006000000e+09,-43.1852
5.7008000000e+09,-44.6037
5.7010000000e+09,-46.2729
5.7012000000e+09,-47.7727
5.7014000000e+09,-48.7229
5.7016000000e+09,-49.2389
5.7018000000e+09,-49.7041
5.7020000000e+09,-50.2488
5.7022000000e+09,-50.7191
5.7024000000e+09,-50.9911
5.7026000000e+09,-51.2114
5.7028000000e+09,-51.6778
5.7030000000e+09,-52.6065
5.7032000000e+09,-53.8871
5.7034000000e+09,-54.6903
5.7036000000e+09,-54.1108
5.7038000000e+09,-52.7819
5.7040000000e+09,-51.601
5.7042000000e+09,-50.7954
5.7044000000e+09,-50.3483
5.7046000000e+09,-50.2383
5.7048000000e+09,-50.4362
5.7050000000e+09,-50.9008
5.7052000000e+09,-51.6698
5.7054000000e+09,-52.9671
5.7056000000e+09,-55.2548
5.7058000000e+09,-59.2165
5.7060000000e+09,-62.599
5.7062000000e+09,-58.3979
5.7064000000e+09,-54.9048
5.7066000000e+09,-53.5558
5.7068000000e+09,-54.1651
5.7070000000e+09,-57.272
5.7072000000e+09,-66.1197
5.7074000000e+09,-63.9847
5.7076000000e+09,-56.4624
5.7078000000e+09,-53.3488
5.7080000000e+09,-51.8233
5.7082000000e+09,-51.0129
5.7084000000e+09,-50.7002
5.7086000000e+09,-51.1045
5.7088000000e+09,-52.6998
5.7090000000e+09,-56.3864
5.7092000000e+09,-65.6209
5.7094000000e+09,-64.5786
5.7096000000e+09,-56.9984
5.7098000000e+09,-54.2483
5.7100000000e+09,-53.3855
5.7102000000e+09,-53.5013
5.7104000000e+09,-53.9613
5.7106000000e+09,-54.2032
5.7108000000e+09,-53.9092
5.7110000000e+09,-53.1466
5.7112000000e+09,-52.2695
5.7114000000e+09,-51.708
5.7116000000e+09,-51.796
5.7118000000e+09,-52.6885
5.7120000000e+09,-54.1353
5.7122000000e+09,-54.9033
5.7124000000e+09,-53.9074
5.7126000000e+09,-52.3397
5.7128000000e+09,-51.2458
5.7130000000e+09,-50.7534
5.7132000000e+09,-50.7249
5.7134000000e+09,-51.0581
5.7136000000e+09,-51.7917
5.7138000000e+09,-53.024
5.7140000000e+09,-54.5883
5.7142000000e+09,-55.3755
5.7144000000e+09,-54.0746
5.7146000000e+09,-51.7324
5.7148000000e+09,-49.6235
5.7150000000e+09,-48.1194
5.7152000000e+09,-47.3138
5.7154000000e+09,-47.2754
5.7156000000e+09,-48.0724
5.7158000000e+09,-49.6901
5.7160000000e+09,-51.6458
5.7162000000e+09,-52.3687
5.7164000000e+09,-51.2326
5.7166000000e+09,-49.7607
5.7168000000e+09,-48.6882
5.7170000000e+09,-47.9467
5.7172000000e+09,-47.3563
5.7174000000e+09,-46.9138
5.7176000000e+09,-46.7951
5.7178000000e+09,-47.2108
5.7180000000e+09,-48.2968
5.7182000000e+09,-49.9991
5.7184000000e+09,-51.7651
5.7186000000e+09,-52.4093
5.7188000000e+09,-51.6791
5.7190000000e+09,-50.5646
5.7192000000e+09,-49.5848
5.7194000000e+09,-48.7537
5.7196000000e+09,-48.0003
5.7198000000e+09,-47.3426
5.7200000000e+09,-46.8929
5.7202000000e+09,-46.7888
5.7204000000e+09,-47.1243
5.7206000000e+09,-47.925
5.7208000000e+09,-49.159
5.7210000000e+09,-50.7721
5.7212000000e+09,-52.6657
5.7214000000e+09,-54.4084
5.7216000000e+09,-54.8325
5.7218000000e+09,-53.539
5.7220000000e+09,-51.8224
5.7222000000e+09,-50.5224
5.7224000000e+09,-49.7614
5.7226000000e+09,-49.3907
5.7228000000e+09,-49.1771
5.7230000000e+09,-48.9483
5.7232000000e+09,-48.7226
5.7234000000e+09,-48.6701
5.7236000000e+09,-48.9678
5.7238000000e+09,-49.7293
5.7240000000e+09,-51.0318
5.7242000000e+09,-53.0023
5.7244000000e+09,-55.9772
5.7246000000e+09,-60.8426
5.7248000000e+09,-67.7795
5.7250000000e+09,-62.5173
5.7252000000e+09,-57.9385
5.7254000000e+09,-55.9581
5.7256000000e+09,-56.0053
5.7258000000e+09,-58.8465
5.7260000000e+09,-71.2934
5.7262000000e+09,-59.318
5.7264000000e+09,-51.9837
5.7266000000e+09,-48.3733
5.7268000000e+09,-46.5585
5.7270000000e+09,-45.9593
5.7272000000e+09,-46.2775
5.7274000000e+09,-47.2784
5.7276000000e+09,-48.7201
5.7278000000e+09,-50.3391
5.7280000000e+09,-51.8626
5.7282000000e+09,-53.0305
5.7284000000e+09,-53.6594
5.7286000000e+09,-53.7407
5.7288000000e+09,-53.4794
5.7290000000e+09,-53.2112
5.7292000000e+09,-53.2962
5.7294000000e+09,-54.0608
5.7296000000e+09,-55.6741
5.7298000000e+09,-57.2407
5.7300000000e+09,-55.8736
5.7302000000e+09,-52.7191
5.7304000000e+09,-50.1907
5.7306000000e+09,-48.6115
5.7308000000e+09,-47.842
5.7310000000e+09,-47.742
5.7312000000e+09,-48.2129
5.7314000000e+09,-49.1736
5.7316000000e+09,-50.4963
5.7318000000e+09,-51.9125
5.7320000000e+09,-52.9681
5.7322000000e+09,-53.1972
5.7324000000e+09,-52.522
5.7326000000e+09,-51.4202
5.7328000000e+09,-50.5271
5.7330000000e+09,-50.2855
5.7332000000e+09,-50.9645
5.7334000000e+09,-52.7751
5.7336000000e+09,-55.7351
5.7338000000e+09,-58.0505
5.7340000000e+09,-56.6345
5.7342000000e+09,-54.5081
5.7344000000e+09,-53.2494
5.7346000000e+09,-52.4269
5.7348000000e+09,-51.5774
5.7350000000e+09,-50.8723
5.7352000000e+09,-50.8097
5.7354000000e+09,-51.7633
5.7356000000e+09,-53.9695
5.7358000000e+09,-57.5829
5.7360000000e+09,-61.8278
5.7362000000e+09,-61.3768
5.7364000000e+09,-57.458
5.7366000000e+09,-54.344
5.7368000000e+09,-52.3931
5.7370000000e+09,-51.4639
5.7372000000e+09,-51.3474
5.7374000000e+09,-51.7878
5.7376000000e+09,-52.5265
5.7378000000e+09,-53.3864
5.7380000000e+09,-54.3707
5.7382000000e+09,-55.7153
5.7384000000e+09,-57.7257
5.7386000000e+09,-59.3442
5.7388000000e+09,-56.9726
5.7390000000e+09,-53.1507
5.7392000000e+09,-50.36
5.7394000000e+09,-48.6917
5.7396000000e+09,-47.9746
5.7398000000e+09,-48.0824
5.7400000000e+09,-48.9104
5.7402000000e+09,-50.3086
5.7404000000e+09,-51.9806
5.7406000000e+09,-53.4086
5.7408000000e+09,-53.9414
5.7410000000e+09,-53.1577
5.7412000000e+09,-51.3679
5.7414000000e+09,-49.3741
5.7416000000e+09,-47.7517
5.7418000000e+09,-46.7498
5.7420000000e+09,-46.4639
5.7422000000e+09,-46.9287
5.7424000000e+09,-48.0832
5.7426000000e+09,-49.5384
5.7428000000e+09,-50.3043
5.7430000000e+09,-49.8314
5.7432000000e+09,-49.0172
5.7434000000e+09,-48.6948
5.7436000000e+09,-49.1445
5.7438000000e+09,-50.4701
5.7440000000e+09,-52.8363
5.7442000000e+09,-56.686
5.7444000000e+09,-63.3957
5.7446000000e+09,-67.58
5.7448000000e+09,-59.1609
5.7450000000e+09,-53.9686
5.7452000000e+09,-50.2978
5.7454000000e+09,-47.7036
5.7456000000e+09,-46.0938
5.7458000000e+09,-45.4154
5.7460000000e+09,-45.6104
5.7462000000e+09,-46.6115
5.7464000000e+09,-48.3449
5.7466000000e+09,-50.7687
5.7468000000e+09,-53.9664
5.7470000000e+09,-58.3969
5.7472000000e+09,-66.0872
5.7474000000e+09,-77.2874
5.7476000000e+09,-63.0017
5.7478000000e+09,-58.4087
5.7480000000e+09,-56.1675
5.7482000000e+09,-55.3353
5.7484000000e+09,-55.3875
5.7486000000e+09,-55.4245
5.7488000000e+09,-54.6364
5.7490000000e+09,-53.5921
5.7492000000e+09,-53.2641
5.7494000000e+09,-54.1078
5.7496000000e+09,-56.0847
5.7498000000e+09,-57.663
5.7500000000e+09,-56.2708
5.7502000000e+09,-53.8098
5.7504000000e+09,-51.6833
5.7506000000e+09,-49.5766
5.7508000000e+09,-47.3514
5.7510000000e+09,-45.4094
5.7512000000e+09,-44.1835
5.7514000000e+09,-43.937
5.7516000000e+09,-44.8571
5.7518000000e+09,-47.1047
5.7520000000e+09,-50.3538
5.7522000000e+09,-51.7178
5.7524000000e+09,-50.1161
5.7526000000e+09,-48.9487
5.7528000000e+09,-48.9494
5.7530000000e+09,-49.7842
5.7532000000e+09,-50.9641
5.7534000000e+09,-52.1289
5.7536000000e+09,-53.3237
5.7538000000e+09,-54.8843
5.7540000000e+09,-56.9931
5.7542000000e+09,-59.1745
5.7544000000e+09,-60.5592
5.7546000000e+09,-62.0901
5.7548000000e+09,-66.5453
5.7550000000e+09,-67.6773
5.7552000000e+09,-58.7985
5.7554000000e+09,-53.9552
5.7556000000e+09,-51.2064
5.7558000000e+09,-49.7994
5.7560000000e+09,-49.4473
5.7562000000e+09,-50.0348
5.7564000000e+09,-51.4898
5.7566000000e+09,-53.6217
5.7568000000e+09,-55.7242
5.7570000000e+09,-56.5888
5.7572000000e+09,-56.22
5.7574000000e+09,-55.5793
5.7576000000e+09,-55.073
5.7578000000e+09,-54.796
5.7580000000e+09,-54.7606
5.7582000000e+09,-54.754
5.7584000000e+09,-54.4748
5.7586000000e+09,-54.0883
5.7588000000e+09,-54.1713
5.7590000000e+09,-55.1487
5.7592000000e+09,-56.9583
5.7594000000e+09,-58.6504
5.7596000000e+09,-59.3789
5.7598000000e+09,-60.617
5.7600000000e+09,-65.0234
5.7602000000e+09,-84.8936
5.7604000000e+09,-63.6886
5.7606000000e+09,-58.8504
5.7608000000e+09,-57.3396
5.7610000000e+09,-57.6452
5.7612000000e+09,-58.3475
5.7614000000e+09,-57.1807
5.7616000000e+09,-54.7943
5.7618000000e+09,-53.0583
5.7620000000e+09,-52.5375
5.7622000000e+09,-53.5076
5.7624000000e+09,-56.6466
5.7626000000e+09,-63.0484
5.7628000000e+09,-58.9333
5.7630000000e+09,-53.0895
5.7632000000e+09,-49.9688
5.7634000000e+09,-48.2565
5.7636000000e+09,-47.3171
5.7638000000e+09,-46.7859
5.7640000000e+09,-46.494
5.7642000000e+09,-46.4622
5.7644000000e+09,-46.8347
5.7646000000e+09,-47.8326
5.7648000000e+09,-49.7748
5.7650000000e+09,-53.2398
5.7652000000e+09,-59.5167
5.7654000000e+09,-62.834
5.7656000000e+09,-56.6933
5.7658000000e+09,-53.6889
5.7660000000e+09,-52.5364
5.7662000000e+09,-52.4963
5.7664000000e+09,-53.245
5.7666000000e+09,-54.6064
5.7668000000e+09,-56.2788
5.7670000000e+09,-57.2734
5.7672000000e+09,-56.4614
5.7674000000e+09,-54.7157
5.7676000000e+09,-53.3309
5.7678000000e+09,-52.774
5.7680000000e+09,-53.1613
5.7682000000e+09,-54.4616
5.7684000000e+09,-56.2972
5.7686000000e+09,-57.5626
5.7688000000e+09,-57.533
5.7690000000e+09,-57.154
5.7692000000e+09,-57.2563
5.7694000000e+09,-58.0763
5.7696000000e+09,-59.6923
5.7698000000e+09,-61.5008
5.7700000000e+09,-60.8855
5.7702000000e+09,-58.092
5.7704000000e+09,-55.72
5.7706000000e+09,-54.2439
5.7708000000e+09,-53.4863
5.7710000000e+09,-53.2866
5.7712000000e+09,-53.5951
5.7714000000e+09,-54.4314
5.7716000000e+09,-55.7736
5.7718000000e+09,-57.3444
5.7720000000e+09,-58.3805
5.7722000000e+09,-58.0922
5.7724000000e+09,-56.7367
5.7726000000e+09,-55.0628
5.7728000000e+09,-53.6095
5.7730000000e+09,-52.7697
5.7732000000e+09,-52.7867
5.7734000000e+09,-53.5365
5.7736000000e+09,-53.8898
5.7738000000e+09,-52.5964
5.7740000000e+09,-50.8948
5.7742000000e+09,-50.1229
5.7744000000e+09,-50.5953
5.7746000000e+09,-52.0302
5.7748000000e+09,-53.156
5.7750000000e+09,-52.727
5.7752000000e+09,-51.9564
5.7754000000e+09,-52.0478
5.7756000000e+09,-53.2662
5.7758000000e+09,-55.6317
5.7760000000e+09,-58.9011
5.7762000000e+09,-59.9158
5.7764000000e+09,-56.4724
5.7766000000e+09,-53.2974
5.7768000000e+09,-51.4626
5.7770000000e+09,-50.8293
5.7772000000e+09,-51.2291
5.7774000000e+09,-52.4787
5.7776000000e+09,-54.326
5.7778000000e+09,-56.4661
5.7780000000e+09,-58.5557
5.7782000000e+09,-59.8485
5.7784000000e+09,-59.6238
5.7786000000e+09,-59.0218
5.7788000000e+09,-59.6503
5.7790000000e+09,-62.8542
5.7792000000e+09,-66.4588
5.7794000000e+09,-58.9174
5.7796000000e+09,-53.6183
5.7798000000e+09,-50.4366
5.7800000000e+09,-48.5304
5.7802000000e+09,-47.5636
5.7804000000e+09,-47.4242
5.7806000000e+09,-48.1478
5.7808000000e+09,-49.9219
5.7810000000e+09,-53.1984
5.7812000000e+09,-58.7922
5.7814000000e+09,-60.1444
5.7816000000e+09,-54.3548
5.7818000000e+09,-50.6114
5.7820000000e+09,-48.1965
5.7822000000e+09,-46.5764
5.7824000000e+09,-45.5645
5.7826000000e+09,-45.105
5.7828000000e+09,-45.1796
5.7830000000e+09,-45.7645
5.7832000000e+09,-46.7998
5.7834000000e+09,-48.1339
5.7836000000e+09,-49.4595
5.7838000000e+09,-50.3302
5.7840000000e+09,-50.4511
5.7842000000e+09,-49.9532
5.7844000000e+09,-49.1856
5.7846000000e+09,-48.3975
5.7848000000e+09,-47.6811
5.7850000000e+09,-47.0592
5.7852000000e+09,-46.583
5.7854000000e+09,-46.3708
5.7856000000e+09,-46.584
5.7858000000e+09,-47.3724
5.7860000000e+09,-48.7792
5.7862000000e+09,-50.4637
5.7864000000e+09,-51.3661
5.7866000000e+09,-50.9465
5.7868000000e+09,-50.3166
5.7870000000e+09,-50.4495
5.7872000000e+09,-51.7858
5.7874000000e+09,-54.6889
5.7876000000e+09,-58.1527
5.7878000000e+09,-55.5677
5.7880000000e+09,-51.4032
5.7882000000e+09,-48.8386
5.7884000000e+09,-47.5882
5.7886000000e+09,-47.3565
5.7888000000e+09,-47.9155
5.7890000000e+09,-48.9779
5.7892000000e+09,-50.0507
5.7894000000e+09,-50.4201
5.7896000000e+09,-49.6908
5.7898000000e+09,-48.3212
5.7900000000e+09,-47.0079
5.7902000000e+09,-46.1298
5.7904000000e+09,-45.7997
5.7906000000e+09,-45.9991
5.7908000000e+09,-46.6569
5.7910000000e+09,-47.7005
5.7912000000e+09,-49.1176
5.7914000000e+09,-50.9916
5.7916000000e+09,-53.482
5.7918000000e+09,-56.6613
5.7920000000e+09,-60.0638
5.7922000000e+09,-61.9099
5.7924000000e+09,-60.5036
5.7926000000e+09,-57.3272
5.7928000000e+09,-54.4349
5.7930000000e+09,-52.5281
5.7932000000e+09,-51.6714
5.7934000000e+09,-51.7674
5.7936000000e+09,-52.7096
5.7938000000e+09,-54.5113
5.7940000000e+09,-57.3493
5.7942000000e+09,-59.5511
5.7944000000e+09,-55.9159
5.7946000000e+09,-51.4334
5.7948000000e+09,-48.3294
5.7950000000e+09,-46.3796
5.7952000000e+09,-45.3509
5.7954000000e+09,-45.1037
5.7956000000e+09,-45.5381
5.7958000000e+09,-46.5277
5.7960000000e+09,-47.837
5.7962000000e+09,-49.0781
5.7964000000e+09,-49.9344
5.7966000000e+09,-50.5527
5.7968000000e+09,-51.3704
5.7970000000e+09,-52.4731
5.7972000000e+09,-52.954
5.7974000000e+09,-51.8744
5.7976000000e+09,-50.3159
5.7978000000e+09,-49.416
5.7980000000e+09,-49.414
5.7982000000e+09,-50.1228
5.7984000000e+09,-51.1656
5.7986000000e+09,-52.3643
5.7988000000e+09,-54.1587
5.7990000000e+09,-57.3886
5.7992000000e+09,-61.2869
5.7994000000e+09,-58.9028
5.7996000000e+09,-55.4047
5.7998000000e+09,-53.6036
5.8000000000e+09,-52.8184

